Variable Angle Spectroscopic Ellipsometric (VASE) Data
Wavelength (nm)	Psi (65.00, 70.00, 75.00°)	Delta (65.00, 70.00, 75.00°)									Model	
241.143387	37.147457	110.128212	37.379337	111.925301	29.618242	162.697876	30.017576	165.831787	33.069111	250.917770	33.681866	252.741486	
242.734039	35.235432	126.981956	35.634144	128.923019	30.767029	195.815536	31.030731	199.174683	39.167389	263.696808	39.414665	264.793396	
244.324677	34.128555	148.891571	34.470695	150.306656	33.728592	221.996979	34.168468	225.311646	45.311069	263.671326	45.838425	263.043091	
245.915375	34.106899	172.783340	34.220139	173.863632	37.554043	238.228104	38.137276	240.555756	56.327209	246.337753	58.043678	242.184204	
247.506073	34.999935	195.232712	35.093166	196.440857	42.196873	242.704254	42.840454	243.277374	72.205322	140.526855	68.845573	127.106651	
249.096832	36.784756	213.334061	36.970039	214.663986	48.535404	231.533890	49.572922	229.217316	53.536217	80.269295	51.944412	79.370728	
250.687576	39.508472	224.211227	39.664841	225.580658	57.595840	190.857346	58.133324	180.463608	45.996216	65.682091	45.342300	66.438553	
252.278351	42.825157	226.067062	43.288567	226.119827	55.299389	122.583977	53.704102	116.133995	42.419426	62.231476	42.068951	64.132240	
253.869095	47.773338	212.785431	48.158047	211.452805	48.097038	91.727333	46.894894	90.673096	39.979225	66.917740	39.710670	69.452194	
255.459930	52.399925	178.532684	52.479271	174.173813	43.512627	82.065544	43.032124	83.092026	37.211418	78.762726	37.164295	81.285172	
257.050751	51.180138	133.066177	50.444351	130.567001	40.566616	83.124519	40.598969	85.320358	33.922607	97.504845	33.873665	100.279266	
258.641602	46.883423	108.005966	46.052456	107.659897	38.729420	91.560570	38.639847	94.538353	29.854324	125.212914	30.026712	128.821854	
260.232483	43.342365	99.085030	42.921448	100.339737	36.712120	106.476433	36.732170	109.588646	27.473810	165.367554	27.675829	168.306503	
261.823395	41.004791	100.379417	40.864216	102.514252	34.976986	126.803551	34.895958	130.153595	29.003471	206.599533	29.403811	209.503616	
263.414246	39.392925	108.481987	39.381992	111.056679	33.666908	152.333344	33.605610	155.566223	33.115746	237.648560	33.526077	240.044189	
265.005219	38.039040	122.199883	38.206657	124.173569	33.243618	180.045700	33.532677	183.301712	37.220684	256.948181	37.490265	258.985291	
266.596130	36.951694	138.586777	37.296047	140.708084	34.744431	206.114487	34.821381	209.097260	40.757271	266.831848	40.920025	268.105011	
268.187073	36.827991	158.432343	36.755699	159.553238	36.749397	226.632828	36.923630	229.531830	44.269241	266.851013	44.667881	267.158264	
269.778046	36.807854	178.113525	36.725060	179.269714	39.075466	240.561523	39.324638	243.038193	49.765831	255.492294	50.552670	253.178711	
271.369110	37.111885	196.901428	37.254490	198.104324	41.796410	247.161911	42.006653	248.532562	60.215935	218.295563	61.411503	210.332169	
272.960052	38.300083	213.266998	38.274246	214.308685	45.072193	244.279556	45.462795	244.057053	62.164143	129.209946	59.971054	122.736794	
274.551117	39.851650	224.883408	39.697361	226.340836	50.015644	228.701950	50.491211	225.203262	51.628448	87.031013	50.471313	85.921860	
276.142151	41.590675	231.819702	41.560295	232.669739	55.672024	190.040375	55.734142	182.575317	46.205845	70.742363	45.729618	71.691437	
277.733215	43.943893	231.087631	44.091496	231.374191	54.570930	135.989853	53.569805	130.593918	43.305813	66.244415	43.112041	67.428444	
279.324310	47.424332	220.186798	47.566639	219.599976	49.459549	104.174980	48.352577	101.980453	41.174503	68.099777	41.200363	69.645775	
280.915436	51.291237	195.401688	51.347733	193.378906	45.168190	89.771645	44.700466	89.817390	39.320801	75.035927	39.287270	76.730492	
282.506470	52.360661	157.808640	52.093597	155.924118	42.367451	85.751839	42.254208	87.026901	37.080627	86.398872	36.965836	88.353195	
284.097595	49.435795	126.842117	48.984875	126.118088	40.261345	88.856010	40.340557	90.449875	34.093361	102.668747	33.994076	105.146568	
285.688751	46.074482	109.881889	45.500515	110.471657	38.704788	96.773895	38.522587	98.501038	30.302166	126.317070	30.500631	128.447540	
287.279877	42.722118	103.454422	42.806259	104.869156	36.647343	108.465446	36.573399	110.482315	27.279266	157.588547	27.538315	159.240570	
288.871094	40.641109	104.698143	40.722313	105.911781	34.600533	124.253952	34.471172	126.142441	26.764069	193.217133	26.910961	194.255249	
290.462280	38.918709	109.869331	38.953445	111.515869	32.799076	143.263657	32.443550	145.248123	28.902611	224.469299	28.909779	225.310501	
292.053467	37.089123	119.527122	37.327316	120.417519	31.032646	165.315201	30.951063	167.026382	32.003258	246.942490	31.978222	248.189819	
293.644653	35.625420	131.183472	35.802662	131.844482	30.471201	187.746368	30.454536	189.689850	34.809158	262.475494	34.984249	263.717346	
295.235840	33.929428	144.206696	34.439476	145.244064	30.916197	208.946915	31.062494	210.838852	37.509384	-86.802444	37.719925	-86.577446	
296.827087	33.104309	159.689362	33.362812	160.059982	32.347897	226.186829	32.494873	228.646057	40.384968	-82.354073	40.468712	-81.902374	
298.418304	32.545227	175.742874	32.710491	175.607193	34.232018	240.180115	34.392990	242.390884	43.748554	-82.336380	43.839775	-82.269623	
300.009583	32.469719	190.741318	32.576168	191.047592	36.596779	250.124573	36.571175	251.978714	48.764297	-89.010063	48.918247	-88.500038	
301.600891	32.812408	205.776581	32.973137	205.512161	38.820599	255.758621	39.081802	257.358154	57.194130	257.389374	57.697533	256.674957	
303.192108	33.956806	218.208328	33.850750	218.248184	41.888660	257.547577	42.223301	258.156555	70.913345	221.641113	71.846405	215.824112	
304.783386	35.342518	228.635483	35.147789	228.684418	45.970150	253.030991	46.571281	253.387848	70.789619	125.570374	69.772354	122.187576	
306.374756	36.969204	235.530457	36.851254	236.361328	52.332886	241.793961	52.944958	240.587845	57.593327	88.128754	56.891117	89.189255	
307.966034	39.203003	239.346298	39.041866	240.794159	60.233967	215.701523	61.274361	212.515945	49.549824	74.661430	49.238113	75.763390	
309.557434	42.219563	240.271149	41.922153	241.303223	65.035736	166.370972	64.644257	161.011703	44.813683	68.269203	44.721245	69.295303	
311.148682	45.648403	236.411102	45.804012	236.760544	59.071358	122.157387	57.996918	119.793869	41.820061	65.867744	41.711510	67.154396	
312.740051	50.772938	224.801636	50.916592	225.042419	51.896301	100.069183	50.789532	100.029083	39.232922	66.878822	39.338417	68.145378	
314.331390	56.431988	202.552155	56.447693	202.353134	46.022690	89.665054	45.714661	90.548363	37.033806	70.239868	37.118362	71.624161	
315.922760	59.349373	168.722733	58.695129	168.115982	42.598160	85.535782	42.183426	86.730667	34.908974	76.018120	34.754688	77.332466	
317.514130	55.760857	136.782455	55.281929	136.831482	39.445324	85.085953	39.525787	86.717873	31.727934	83.115486	32.047527	85.326508	
319.105530	50.433041	116.971947	50.025185	117.931870	37.205173	87.762642	37.299438	89.566673	28.780039	94.880020	28.880318	95.986748	
320.696838	45.822491	107.052223	45.553089	108.128662	34.959770	93.363449	35.240101	94.778893	25.107407	109.000053	25.284117	110.136391	
322.288269	42.144268	102.263367	42.170887	103.993309	33.202236	100.060493	33.204182	102.137390	21.063686	129.279938	21.601551	129.210709	
323.879700	39.539536	102.355392	39.601849	103.686577	30.975393	110.191147	31.141792	111.613846	18.371824	154.939056	18.713146	154.768036	
325.471130	37.168579	105.065666	37.559093	106.181938	28.975351	122.470886	29.095234	123.292992	18.019585	185.851639	17.880541	185.360947	
327.062531	35.788536	109.529182	35.843739	110.860832	27.140162	136.420898	27.209219	137.262009	19.676199	214.649506	19.546490	214.199417	
328.653900	34.355560	116.097382	34.340076	117.335464	25.797226	152.556580	25.724483	153.408340	23.255816	235.836197	22.739004	236.433075	
330.245361	32.758629	124.204147	32.996799	125.350243	24.780277	170.323349	24.915512	171.141632	26.516117	252.199203	26.315886	252.497299	
331.836761	31.730024	134.449066	31.811407	134.709564	25.225245	188.800949	24.962912	189.279556	29.772287	263.446167	29.691069	264.115784	
333.428253	30.610970	145.243622	30.816792	145.221695	26.193850	205.628189	25.844204	206.417496	32.779106	-88.191231	32.710621	-87.508011	
335.019684	29.766323	157.337112	30.067341	156.646805	27.690060	220.183945	27.356228	221.521973	35.655949	-82.242790	35.439075	-81.730476	
336.611145	29.501589	169.483780	29.620901	168.668594	29.513157	233.429459	29.243450	234.167908	38.314610	-78.939484	38.053291	-78.280098	
338.202637	29.435137	181.419968	29.519686	180.891418	31.358402	243.034607	31.308281	244.340637	40.881832	-77.801010	40.819309	-77.155960	
339.794067	30.044569	193.137848	29.775686	192.879318	33.770630	251.042511	33.451981	252.165649	44.009827	-79.437767	44.129738	-78.596130	
341.385559	30.640011	204.597916	30.368282	204.219833	35.674713	256.445496	35.672863	257.740479	48.325123	-83.464211	48.593723	-83.116730	
342.976990	31.732002	215.592957	31.254372	214.568466	37.899200	260.153198	38.054943	261.048584	54.972595	267.625092	55.164696	268.187836	
344.568481	32.974892	224.071945	32.386330	223.669922	40.668083	260.679077	40.768997	261.912476	64.966797	251.770538	65.084915	251.702057	
346.159973	34.087952	230.283798	33.729614	231.336075	43.787659	258.869873	44.084553	259.927582	76.891319	203.473907	76.804398	206.204422	
347.751465	35.761082	236.257858	35.276596	237.409378	48.084003	253.331406	48.378452	254.305389	72.517174	119.476379	73.041306	123.469826	
349.342926	37.562618	240.668533	37.055584	241.715546	53.440479	242.056198	54.049511	243.396423	60.857136	92.940552	61.596970	94.356689	
350.934387	39.402519	242.620819	39.137299	244.016174	60.612526	222.462494	60.934689	223.348419	52.587814	79.524223	53.506474	81.317314	
352.525909	42.190865	241.935165	41.637154	243.950684	65.505585	186.227478	66.146782	187.831894	47.988247	72.439529	48.279518	73.814507	
354.117371	45.239380	238.809036	44.703957	240.952148	63.915676	144.378616	64.350800	145.957642	44.547184	68.093269	44.796230	69.610397	
355.708954	48.568401	232.188293	48.460888	234.097412	57.783623	117.282753	58.029678	118.611320	42.024670	67.299805	42.310169	67.819153	
357.300415	52.732086	220.790207	52.796364	221.894592	51.859016	102.398087	52.055779	103.413734	40.140659	67.032097	40.364132	67.941895	
358.891937	56.710335	203.543472	56.851292	202.482056	47.903923	95.517952	47.544510	94.765015	38.699081	68.987816	38.671650	69.685387	
360.483459	58.637093	176.555923	58.639252	176.396118	44.219292	90.496933	44.253071	90.130714	36.934998	72.111061	37.039822	72.904655	
362.074890	55.973839	148.968216	56.884598	150.491714	41.941647	87.748337	41.779751	88.342880	34.821548	77.245613	35.322342	77.571014	
363.666443	52.908314	129.970810	53.061989	131.259384	39.721680	88.566376	39.799709	88.762634	33.200886	83.513931	33.400898	83.749626	
365.257965	48.829006	118.165298	49.091099	118.923508	38.493797	90.011093	38.079380	90.997200	30.965317	90.313126	31.181402	91.600296	
366.849457	46.183708	111.959534	45.725182	111.631180	36.739571	93.977875	36.460751	94.795578	28.700497	99.585030	28.618963	101.399841	
368.441010	43.639767	107.734550	43.017361	107.918419	34.970318	98.494034	34.840427	100.002525	25.763700	110.793266	25.754988	113.592766	
370.032501	41.336926	106.845734	40.818233	106.842834	33.042397	105.161957	33.162922	106.534195	22.802729	125.908218	22.790672	128.831909	
371.623993	39.275879	107.925873	38.966259	107.780388	31.344397	113.178360	31.414001	114.363815	20.072485	145.330872	20.149441	147.822693	
373.215515	37.376640	110.640289	37.338291	110.303345	29.996708	122.114548	29.622625	123.501732	18.060843	167.904312	18.450241	170.498978	
374.806946	35.865574	114.203667	35.853199	114.114868	27.873875	132.189789	27.862080	133.973145	18.005995	193.035339	18.207836	194.717606	
376.398499	34.148983	118.287567	34.463531	119.009521	26.399055	144.643127	26.245720	145.770844	19.028158	217.844177	19.398632	216.934891	
377.990021	32.936596	124.642197	33.148182	124.841705	24.630478	157.312592	24.914663	158.771347	21.233767	235.335922	21.506302	235.083710	
379.581451	31.817347	132.079132	31.905464	131.503586	24.062464	171.675568	24.007519	172.652985	23.982279	249.409698	23.974730	249.217133	
381.173004	30.599699	139.038498	30.748362	138.906494	23.494858	185.693573	23.619286	186.870148	26.301626	260.817841	26.452288	260.167145	
382.764465	29.530401	147.013168	29.701105	146.961395	23.559874	199.832748	23.768400	200.747177	28.588675	268.064941	28.778521	268.709595	
384.355957	28.538626	155.925552	28.794535	155.566788	24.439041	212.508331	24.394012	213.676727	30.871849	-85.071815	30.911636	-84.603516	
385.947418	28.000053	164.870926	28.061438	164.595840	25.567556	224.593491	25.386150	225.267548	32.784637	-80.160446	32.872849	-79.411041	
387.539001	27.752436	174.159256	27.530941	173.893036	26.608965	233.940826	26.626455	235.368011	34.617043	-76.107643	34.717014	-75.484917	
389.130463	27.154774	183.642563	27.223377	183.275330	28.285263	242.689423	28.016758	243.991531	36.527496	-72.987984	36.519619	-72.690475	
390.721863	27.118111	192.992676	27.146746	192.548172	29.586529	249.954376	29.491541	251.233139	38.492451	-71.675369	38.376137	-70.960281	
392.313446	27.456993	201.959595	27.296137	201.524216	31.149057	256.347961	31.018480	257.207214	40.412243	-70.603683	40.408661	-70.279900	
393.904877	27.879511	209.871826	27.656004	210.037491	32.688774	260.235046	32.593922	262.012054	42.727734	-71.639091	42.778656	-70.677979	
395.496307	28.525164	218.192474	28.204458	217.958435	34.128803	264.293671	34.239697	265.718140	45.536640	-72.614609	45.708298	-72.217812	
397.087830	29.147011	225.299438	28.918419	225.194565	35.924110	266.769806	36.001419	268.360901	49.323280	-75.317039	49.507652	-74.995239	
398.679230	29.858961	231.114502	29.778215	231.684387	38.047474	268.472687	37.949696	269.938141	54.336281	-79.665016	54.600456	-79.159332	
400.270752	31.181023	237.200760	30.771437	237.390045	40.070461	268.931519	40.185303	-89.592842	60.942478	-85.369034	61.518951	-85.052292	
401.862183	32.002403	241.921326	31.895517	242.284622	42.448536	268.006409	42.845936	269.675537	70.272346	266.181244	70.735733	266.007965	
403.453552	33.419777	245.411835	33.160114	246.344330	45.619133	266.229248	46.115074	267.578796	81.780174	244.464935	81.866875	243.676758	
405.045044	34.709808	248.870041	34.588978	249.539001	49.901646	263.004456	50.224110	263.819092	83.321136	117.893066	83.249779	120.170044	
406.636414	36.774998	250.638321	36.221897	251.823700	54.692097	257.098206	55.425934	257.795502	72.446991	92.353065	72.364670	92.558716	
408.227905	38.387913	252.331757	38.117882	253.131882	60.920174	247.692825	61.871632	248.093018	63.111694	82.318596	63.200726	83.175217	
409.819275	40.501659	252.633316	40.356537	253.362274	68.092239	231.220383	69.150047	230.884598	56.038609	76.393417	56.269192	77.222618	
411.410706	43.216068	251.003220	43.040302	252.360001	74.292374	199.199081	74.876617	196.986908	51.081646	72.338455	51.110271	72.992737	
413.002106	46.328823	248.692062	46.287960	249.877380	73.873497	153.915314	74.056030	150.609299	47.003391	69.033150	47.214340	70.012794	
414.593414	50.117718	243.970764	50.211620	245.493805	68.079849	123.739281	67.819412	121.654900	43.938408	67.232239	44.180172	68.055687	
416.184753	54.475712	236.985794	54.848595	238.450241	61.160088	106.616341	60.917027	106.898369	41.735680	66.255280	41.718430	66.965538	
417.776215	60.110321	226.040802	59.984657	227.348160	55.247295	98.662567	54.979675	98.347778	39.437099	65.700272	39.625977	66.621155	
419.367615	64.696922	208.926559	64.789871	209.954636	50.281212	92.516251	50.183651	92.932785	37.689190	65.965286	37.759781	66.926651	
420.958984	67.004326	182.798264	67.496132	185.080353	46.512398	88.980087	46.345161	89.451355	35.930370	66.990883	36.017410	67.808197	
422.550293	66.476822	156.841354	66.505928	158.206436	43.215698	86.380760	43.233627	87.345139	34.100502	68.673012	34.323498	69.211838	
424.141602	62.121449	136.877472	62.579159	137.514786	40.583691	85.753319	40.649906	86.308044	32.356979	70.322388	32.620411	71.102020	
425.732971	57.562710	122.393044	57.663795	124.033867	38.395947	85.274353	38.439377	86.150063	30.658375	72.366669	30.863087	73.460213	
427.324219	52.799908	113.979469	52.945835	115.448700	36.282333	86.047516	36.486893	86.743881	28.742706	75.312347	29.016369	76.284630	
428.915527	48.557735	108.960297	48.828190	109.941925	34.569572	87.297760	34.707058	88.001572	26.780649	78.284607	27.052675	79.593788	
430.506836	45.246029	105.528397	45.353497	106.480942	32.990837	89.243134	33.037563	89.863342	24.758854	82.557587	24.952753	83.431572	
432.098053	42.134235	103.265358	42.440655	104.487167	31.294512	91.460793	31.433205	92.291801	22.405737	87.179863	22.706701	87.879807	
433.689392	39.847485	102.138618	39.981285	103.617134	29.856304	94.488884	29.861532	95.269753	20.062172	92.268738	20.316006	93.083206	
435.280609	37.410305	102.488693	37.876106	103.653267	28.186888	98.249626	28.301682	98.796539	17.439989	98.171738	17.800192	99.290131	
436.871826	35.683735	103.091263	36.042553	104.448708	26.701710	102.098328	26.741962	102.889565	14.735473	106.328987	15.203566	106.942642	
438.463135	34.025429	104.928070	34.415936	105.900276	24.940073	107.050194	25.179737	107.584343	11.992144	116.979523	12.611724	116.845993	
440.054291	32.598377	107.033752	32.947544	107.933121	23.241838	112.304024	23.622065	112.933815	9.659832	131.034042	10.186593	130.455093	
441.645599	31.268389	109.786362	31.600983	110.493156	21.830448	118.829323	22.085520	119.011292	7.901120	153.105392	8.233585	150.014236	
443.236755	29.909786	112.938507	30.350817	113.540047	20.326115	125.531258	20.598358	125.903160	6.977967	180.313156	7.253491	176.578354	
444.827881	28.812792	116.467033	29.179548	117.045410	19.079107	133.985748	19.200161	133.704102	7.608115	208.099197	7.644115	204.785904	
446.419098	27.848024	120.415573	28.076643	120.988899	17.661642	141.863968	17.942459	142.493225	9.270391	229.677048	9.175743	227.020081	
448.010193	26.525661	125.036682	27.037666	125.354324	16.723671	152.567902	16.886660	152.290909	11.526187	244.379669	11.303417	242.427795	
449.601318	25.742500	130.128571	26.062685	130.129486	15.922373	163.428345	16.096926	163.009247	14.040632	254.577377	13.649803	253.279968	
451.192627	24.873558	135.165451	25.155928	135.301773	15.484857	174.634262	15.629304	174.399231	16.276165	261.524567	16.021795	261.367920	
452.783600	24.022684	140.885971	24.325207	140.853455	15.546693	186.762924	15.517283	186.048477	18.591242	267.778046	18.324543	267.715729	
454.374695	23.210655	147.137634	23.580173	146.764160	15.776982	197.772842	15.760998	197.476135	20.843410	-86.803688	20.514849	-87.105408	
455.965820	22.774666	153.787231	22.932306	153.001785	16.340631	208.321869	16.327301	208.249451	22.812433	-82.755661	22.575457	-82.770866	
457.556793	22.093765	160.385574	22.393389	159.522202	17.395029	218.119064	17.160130	218.086731	24.694368	-79.264481	24.505026	-79.086258	
459.147858	21.825897	167.068802	21.974276	166.268402	18.436977	226.903900	18.195404	226.875107	26.562799	-76.430153	26.312216	-75.929993	
460.738922	21.416161	174.073410	21.683805	173.168091	19.701496	234.312332	19.372463	234.624527	28.155561	-73.584358	28.011442	-73.224342	
462.329987	21.469349	181.323868	21.527590	180.138885	20.928862	241.554016	20.640953	241.414703	29.841295	-71.363808	29.621714	-70.917679	
463.920990	21.524357	188.128845	21.507402	187.091980	22.177145	246.656845	21.962631	247.349594	31.457113	-69.540688	31.165272	-68.975693	
465.511963	21.584221	194.717453	21.620855	193.939392	23.535601	251.915222	23.310881	252.533066	32.819138	-67.712929	32.667404	-67.375465	
467.102966	22.045439	201.431351	21.861877	200.599960	24.752548	255.957138	24.669195	257.056763	34.242897	-66.330925	34.156590	-66.102242	
468.693909	22.440481	207.859253	22.221340	207.003525	26.095203	259.700531	26.029228	260.996246	35.760899	-65.881081	35.664959	-65.147057	
